Zeit Kanal A
(ms) (mV)

-50.01217000 3.56151000
-49.99169000 3.56151000
-49.97121000 2.66426600
-49.95073000 3.56151000
-49.93025000 3.56151000
-49.90977000 3.56151000
-49.88929000 3.56151000
-49.86881000 2.66426600
-49.84833000 3.56151000
-49.82785000 1.76397000
-49.80737000 3.56151000
-49.78689000 1.76397000
-49.76641000 2.66426600
-49.74593000 3.56151000
-49.72545000 3.56151000
-49.70497000 3.56151000
-49.68449000 2.66426600
-49.66401000 2.66426600
-49.64353000 2.66426600
-49.62305000 3.56151000
-49.60257000 2.66426600
-49.58208000 3.56151000
-49.56161000 3.56151000
-49.54113000 2.66426600
-49.52065000 3.56151000
-49.50017000 2.66426600
-49.47969000 2.66426600
-49.45921000 2.66426600
-49.43872000 3.56151000
-49.41825000 3.56151000
-49.39777000 3.56151000
-49.37729000 3.56151000
-49.35681000 2.66426600
-49.33633000 2.66426600
-49.31585000 1.76397000
-49.29536000 3.56151000
-49.27489000 2.66426600
-49.25441000 2.66426600
-49.23393000 3.56151000
-49.21345000 3.56151000
-49.19297000 3.56151000
-49.17249000 3.56151000
-49.15201000 3.56151000
-49.13153000 2.66426600
-49.11105000 2.66426600
-49.09057000 2.66426600
-49.07009000 3.56151000
-49.04961000 3.56151000
-49.02913000 3.56151000
-49.00865000 3.56151000
-48.98817000 3.56151000
-48.96769000 3.56151000
-48.94721000 2.66426600
-48.92673000 2.66426600
-48.90625000 3.56151000
-48.88577000 2.66426600
-48.86529000 3.56151000
-48.84481000 3.56151000
-48.82433000 3.56151000
-48.80385000 2.66426600
-48.78337000 2.66426600
-48.76289000 2.66426600
-48.74240000 3.56151000
-48.72193000 3.56151000
-48.70145000 3.56151000
-48.68097000 3.56151000
-48.66049000 2.66426600
-48.64001000 3.56151000
-48.61953000 2.66426600
-48.59904000 3.56151000
-48.57857000 3.56151000
-48.55809000 2.66426600
-48.53761000 3.56151000
-48.51713000 3.56151000
-48.49665000 3.56151000
-48.47617000 3.56151000
-48.45569000 2.66426600
-48.43521000 2.66426600
-48.41473000 3.56151000
-48.39425000 3.56151000
-48.37377000 2.66426600
-48.35329000 3.56151000
-48.33281000 3.56151000
-48.31233000 2.66426600
-48.29185000 1.76397000
-48.27137000 2.66426600
-48.25089000 2.66426600
-48.23041000 3.56151000
-48.20993000 3.56151000
-48.18945000 3.56151000
-48.16897000 3.56151000
-48.14849000 3.56151000
-48.12801000 2.66426600
-48.10753000 2.66426600
-48.08705000 3.56151000
-48.06657000 3.56151000
-48.04609000 3.56151000
-48.02561000 3.56151000
-48.00513000 3.56151000
-47.98465000 3.56151000
-47.96417000 2.66426600
-47.94369000 2.66426600
-47.92321000 2.66426600
-47.90273000 3.56151000
-47.88225000 3.56151000
-47.86177000 2.66426600
-47.84129000 3.56151000
-47.82081000 2.66426600
-47.80033000 3.56151000
-47.77985000 1.76397000
-47.75937000 2.66426600
-47.73889000 2.66426600
-47.71841000 3.56151000
-47.69793000 3.56151000
-47.67744000 3.56151000
-47.65697000 3.56151000
-47.63649000 2.66426600
-47.61601000 3.56151000
-47.59553000 2.66426600
-47.57505000 3.56151000
-47.55457000 3.56151000
-47.53408000 3.56151000
-47.51361000 3.56151000
-47.49313000 3.56151000
-47.47265000 3.56151000
-47.45217000 3.56151000
-47.43169000 3.56151000
-47.41121000 3.56151000
-47.39073000 3.56151000
-47.37025000 4.46180600
-47.34977000 3.56151000
-47.32929000 4.46180600
-47.30881000 3.56151000
-47.28833000 3.56151000
-47.26785000 2.66426600
-47.24737000 3.56151000
-47.22689000 2.66426600
-47.20641000 3.56151000
-47.18593000 3.56151000
-47.16545000 3.56151000
-47.14497000 3.56151000
-47.12449000 3.56151000
-47.10401000 3.56151000
-47.08353000 2.66426600
-47.06305000 3.56151000
-47.04257000 3.56151000
-47.02209000 3.56151000
-47.00161000 3.56151000
-46.98112000 3.56151000
-46.96065000 3.56151000
-46.94017000 3.56151000
-46.91969000 2.66426600
-46.89921000 2.66426600
-46.87873000 3.56151000
-46.85825000 3.56151000
-46.83776000 3.56151000
-46.81729000 3.56151000
-46.79681000 2.66426600
-46.77633000 3.56151000
-46.75585000 2.66426600
-46.73537000 3.56151000
-46.71489000 1.76397000
-46.69441000 2.66426600
-46.67393000 3.56151000
-46.65345000 3.56151000
-46.63297000 3.56151000
-46.61249000 3.56151000
-46.59201000 3.56151000
-46.57153000 2.66426600
-46.55105000 3.56151000
-46.53057000 3.56151000
-46.51009000 3.56151000
-46.48961000 3.56151000
-46.46913000 2.66426600
-46.44865000 3.56151000
-46.42817000 3.56151000
-46.40769000 3.56151000
-46.38721000 1.76397000
-46.36673000 3.56151000
-46.34625000 3.56151000
-46.32577000 3.56151000
-46.30529000 3.56151000
-46.28481000 2.66426600
-46.26433000 2.66426600
-46.24385000 2.66426600
-46.22337000 2.66426600
-46.20289000 2.66426600
-46.18241000 2.66426600
-46.16193000 3.56151000
-46.14145000 2.66426600
-46.12097000 3.56151000
-46.10049000 2.66426600
-46.08001000 2.66426600
-46.05953000 2.66426600
-46.03905000 2.66426600
-46.01857000 3.56151000
-45.99809000 2.66426600
-45.97761000 3.56151000
-45.95713000 2.66426600
-45.93665000 2.66426600
-45.91616000 2.66426600
-45.89569000 2.66426600
-45.87521000 2.66426600
-45.85473000 3.56151000
-45.83425000 3.56151000
-45.81377000 2.66426600
-45.79329000 3.56151000
-45.77280000 3.56151000
-45.75233000 2.66426600
-45.73185000 2.66426600
-45.71137000 3.56151000
-45.69089000 2.66426600
-45.67041000 2.66426600
-45.64993000 3.56151000
-45.62945000 3.56151000
-45.60897000 3.56151000
-45.58849000 3.56151000
-45.56801000 3.56151000
-45.54753000 2.66426600
-45.52705000 3.56151000
-45.50657000 3.56151000
-45.48609000 2.66426600
-45.46561000 3.56151000
-45.44513000 2.66426600
-45.42465000 3.56151000
-45.40417000 2.66426600
-45.38369000 3.56151000
-45.36320000 2.66426600
-45.34273000 3.56151000
-45.32225000 3.56151000
-45.30177000 3.56151000
-45.28129000 3.56151000
-45.26081000 3.56151000
-45.24033000 3.56151000
-45.21984000 2.66426600
-45.19937000 3.56151000
-45.17889000 3.56151000
-45.15841000 3.56151000
-45.13793000 3.56151000
-45.11745000 3.56151000
-45.09697000 3.56151000
-45.07648000 3.56151000
-45.05601000 3.56151000
-45.03553000 2.66426600
-45.01505000 3.56151000
-44.99457000 3.56151000
-44.97409000 3.56151000
-44.95361000 3.56151000
-44.93313000 3.56151000
-44.91265000 3.56151000
-44.89217000 2.66426600
-44.87169000 2.66426600
-44.85121000 2.66426600
-44.83073000 3.56151000
-44.81025000 3.56151000
-44.78977000 3.56151000
-44.76929000 3.56151000
-44.74881000 2.66426600
-44.72833000 2.66426600
-44.70785000 2.66426600
-44.68737000 2.66426600
-44.66689000 3.56151000
-44.64641000 2.66426600
-44.62593000 3.56151000
-44.60545000 3.56151000
-44.58497000 3.56151000
-44.56449000 3.56151000
-44.54401000 2.66426600
-44.52353000 2.66426600
-44.50305000 2.66426600
-44.48257000 3.56151000
-44.46209000 2.66426600
-44.44161000 3.56151000
-44.42113000 2.66426600
-44.40065000 2.66426600
-44.38017000 1.76397000
-44.35969000 3.56151000
-44.33921000 2.66426600
-44.31873000 3.56151000
-44.29825000 4.46180600
-44.27777000 3.56151000
-44.25729000 7.15659000
-44.23681000 7.15659000
-44.21633000 6.25629500
-44.19585000 5.35905000
-44.17537000 6.25629500
-44.15488000 5.35905000
-44.13441000 5.35905000
-44.11393000 6.25629500
-44.09345000 5.35905000
-44.07297000 5.35905000
-44.05249000 4.46180600
-44.03201000 3.56151000
-44.01152000 3.56151000
-43.99105000 3.56151000
-43.97057000 4.46180600
-43.95009000 3.56151000
-43.92961000 4.46180600
-43.90913000 3.56151000
-43.88865000 3.56151000
-43.86817000 2.66426600
-43.84769000 3.56151000
-43.82721000 2.66426600
-43.80673000 3.56151000
-43.78625000 3.56151000
-43.76577000 3.56151000
-43.74529000 3.56151000
-43.72481000 3.56151000
-43.70433000 3.56151000
-43.68385000 2.66426600
-43.66337000 2.66426600
-43.64289000 3.56151000
-43.62241000 3.56151000
-43.60192000 3.56151000
-43.58145000 3.56151000
-43.56097000 3.56151000
-43.54049000 3.56151000
-43.52001000 2.66426600
-43.49953000 2.66426600
-43.47905000 3.56151000
-43.45856000 3.56151000
-43.43809000 2.66426600
-43.41761000 3.56151000
-43.39713000 2.66426600
-43.37665000 3.56151000
-43.35617000 2.66426600
-43.33569000 2.66426600
-43.31520000 2.66426600
-43.29473000 2.66426600
-43.27425000 3.56151000
-43.25377000 3.56151000
-43.23329000 3.56151000
-43.21281000 2.66426600
-43.19233000 2.66426600
-43.17185000 2.66426600
-43.15137000 3.56151000
-43.13089000 3.56151000
-43.11041000 2.66426600
-43.08993000 3.56151000
-43.06945000 2.66426600
-43.04897000 2.66426600
-43.02849000 0.86672560
-43.00801000 2.66426600
-42.98753000 1.76397000
-42.96705000 2.66426600
-42.94657000 3.56151000
-42.92609000 2.66426600
-42.90561000 3.56151000
-42.88513000 2.66426600
-42.86465000 2.66426600
-42.84417000 2.66426600
-42.82369000 2.66426600
-42.80321000 2.66426600
-42.78273000 3.56151000
-42.76225000 3.56151000
-42.74177000 2.66426600
-42.72129000 3.56151000
-42.70081000 2.66426600
-42.68033000 2.66426600
-42.65985000 1.76397000
-42.63937000 2.66426600
-42.61889000 3.56151000
-42.59841000 2.66426600
-42.57793000 3.56151000
-42.55745000 2.66426600
-42.53697000 2.66426600
-42.51649000 2.66426600
-42.49601000 2.66426600
-42.47553000 1.76397000
-42.45505000 2.66426600
-42.43457000 3.56151000
-42.41409000 2.66426600
-42.39360000 3.56151000
-42.37313000 2.66426600
-42.35265000 2.66426600
-42.33217000 1.76397000
-42.31169000 2.66426600
-42.29121000 2.66426600
-42.27073000 2.66426600
-42.25024000 3.56151000
-42.22977000 3.56151000
-42.20929000 3.56151000
-42.18881000 3.56151000
-42.16833000 3.56151000
-42.14785000 2.66426600
-42.12737000 3.56151000
-42.10689000 3.56151000
-42.08641000 2.66426600
-42.06593000 3.56151000
-42.04545000 2.66426600
-42.02497000 3.56151000
-42.00449000 1.76397000
-41.98400000 3.56151000
-41.96353000 2.66426600
-41.94305000 3.56151000
-41.92257000 3.56151000
-41.90209000 3.56151000
-41.88161000 3.56151000
-41.86113000 3.56151000
-41.84064000 3.56151000
-41.82017000 2.66426600
-41.79969000 3.56151000
-41.77921000 3.56151000
-41.75873000 3.56151000
-41.73825000 4.46180600
-41.71777000 3.56151000
-41.69728000 4.46180600
-41.67681000 3.56151000
-41.65633000 3.56151000
-41.63585000 3.56151000
-41.61537000 3.56151000
-41.59489000 4.46180600
-41.57441000 3.56151000
-41.55393000 4.46180600
-41.53345000 3.56151000
-41.51297000 3.56151000
-41.49249000 2.66426600
-41.47201000 3.56151000
-41.45153000 3.56151000
-41.43105000 3.56151000
-41.41057000 4.46180600
-41.39009000 4.46180600
-41.36961000 4.46180600
-41.34913000 3.56151000
-41.32865000 3.56151000
-41.30817000 3.56151000
-41.28769000 3.56151000
-41.26721000 3.56151000
-41.24673000 3.56151000
-41.22625000 3.56151000
-41.20577000 3.56151000
-41.18529000 3.56151000
-41.16481000 3.56151000
-41.14433000 3.56151000
-41.12385000 3.56151000
-41.10337000 3.56151000
-41.08289000 3.56151000
-41.06241000 3.56151000
-41.04193000 3.56151000
-41.02145000 3.56151000
-41.00097000 3.56151000
-40.98049000 1.76397000
-40.96001000 3.56151000
-40.93953000 3.56151000
-40.91905000 3.56151000
-40.89857000 4.46180600
-40.87809000 3.56151000
-40.85761000 3.56151000
-40.83713000 3.56151000
-40.81665000 3.56151000
-40.79617000 2.66426600
-40.77569000 3.56151000
-40.75521000 3.56151000
-40.73473000 3.56151000
-40.71425000 4.46180600
-40.69377000 3.56151000
-40.67329000 3.56151000
-40.65281000 3.56151000
-40.63233000 3.56151000
-40.61185000 2.66426600
-40.59137000 3.56151000
-40.57089000 3.56151000
-40.55041000 2.66426600
-40.52993000 3.56151000
-40.50945000 2.66426600
-40.48896000 3.56151000
-40.46849000 2.66426600
-40.44801000 3.56151000
-40.42753000 2.66426600
-40.40705000 2.66426600
-40.38657000 3.56151000
-40.36609000 3.56151000
-40.34561000 3.56151000
-40.32513000 3.56151000
-40.30465000 2.66426600
-40.28417000 2.66426600
-40.26369000 3.56151000
-40.24321000 3.56151000
-40.22272000 3.56151000
-40.20225000 3.56151000
-40.18177000 3.56151000
-40.16129000 3.56151000
-40.14081000 1.76397000
-40.12033000 2.66426600
-40.09985000 2.66426600
-40.07936000 2.66426600
-40.05889000 3.56151000
-40.03841000 3.56151000
-40.01793000 3.56151000
-39.99745000 3.56151000
-39.97697000 3.56151000
-39.95649000 2.66426600
-39.93600000 3.56151000
-39.91553000 2.66426600
-39.89505000 3.56151000
-39.87457000 3.56151000
-39.85409000 3.56151000
-39.83361000 3.56151000
-39.81313000 3.56151000
-39.79265000 3.56151000
-39.77217000 2.66426600
-39.75169000 3.56151000
-39.73121000 3.56151000
-39.71073000 3.56151000
-39.69025000 3.56151000
-39.66977000 2.66426600
-39.64929000 2.66426600
-39.62881000 1.76397000
-39.60833000 2.66426600
-39.58785000 2.66426600
-39.56737000 2.66426600
-39.54689000 3.56151000
-39.52641000 2.66426600
-39.50593000 3.56151000
-39.48545000 2.66426600
-39.46497000 2.66426600
-39.44449000 1.76397000
-39.42401000 2.66426600
-39.40353000 2.66426600
-39.38305000 2.66426600
-39.36257000 3.56151000
-39.34209000 3.56151000
-39.32161000 7.15659000
-39.30113000 6.25629500
-39.28065000 6.25629500
-39.26017000 5.35905000
-39.23969000 5.35905000
-39.21921000 6.25629500
-39.19873000 5.35905000
-39.17825000 6.25629500
-39.15777000 5.35905000
-39.13729000 4.46180600
-39.11681000 3.56151000
-39.09633000 3.56151000
-39.07585000 3.56151000
-39.05537000 3.56151000
-39.03489000 3.56151000
-39.01441000 3.56151000
-38.99393000 3.56151000
-38.97345000 3.56151000
-38.95297000 3.56151000
-38.93249000 2.66426600
-38.91201000 3.56151000
-38.89153000 3.56151000
-38.87105000 3.56151000
-38.85057000 3.56151000
-38.83009000 2.66426600
-38.80961000 3.56151000
-38.78913000 3.56151000
-38.76865000 2.66426600
-38.74817000 1.76397000
-38.72768000 2.66426600
-38.70721000 3.56151000
-38.68673000 2.66426600
-38.66625000 3.56151000
-38.64577000 2.66426600
-38.62529000 2.66426600
-38.60481000 1.76397000
-38.58433000 2.66426600
-38.56385000 1.76397000
-38.54337000 3.56151000
-38.52289000 3.56151000
-38.50241000 2.66426600
-38.48193000 3.56151000
-38.46145000 3.56151000
-38.44097000 2.66426600
-38.42049000 1.76397000
-38.40001000 2.66426600
-38.37953000 3.56151000
-38.35905000 2.66426600
-38.33857000 3.56151000
-38.31808000 2.66426600
-38.29761000 2.66426600
-38.27713000 2.66426600
-38.25665000 2.66426600
-38.23617000 1.76397000
-38.21569000 2.66426600
-38.19521000 2.66426600
-38.17472000 2.66426600
-38.15425000 3.56151000
-38.13377000 2.66426600
-38.11329000 2.66426600
-38.09281000 1.76397000
-38.07233000 2.66426600
-38.05185000 1.76397000
-38.03137000 2.66426600
-38.01089000 3.56151000
-37.99041000 2.66426600
-37.96993000 2.66426600
-37.94945000 2.66426600
-37.92897000 2.66426600
-37.90849000 1.76397000
-37.88801000 2.66426600
-37.86753000 3.56151000
-37.84705000 2.66426600
-37.82657000 3.56151000
-37.80609000 3.56151000
-37.78561000 3.56151000
-37.76513000 3.56151000
-37.74465000 2.66426600
-37.72417000 2.66426600
-37.70369000 3.56151000
-37.68321000 3.56151000
-37.66273000 3.56151000
-37.64225000 3.56151000
-37.62177000 2.66426600
-37.60129000 3.56151000
-37.58081000 1.76397000
-37.56033000 2.66426600
-37.53985000 2.66426600
-37.51937000 3.56151000
-37.49889000 3.56151000
-37.47840000 2.66426600
-37.45793000 3.56151000
-37.43745000 2.66426600
-37.41697000 2.66426600
-37.39649000 2.66426600
-37.37601000 2.66426600
-37.35553000 3.56151000
-37.33505000 3.56151000
-37.31457000 3.56151000
-37.29409000 2.66426600
-37.27361000 2.66426600
-37.25313000 1.76397000
-37.23265000 2.66426600
-37.21217000 2.66426600
-37.19169000 3.56151000
-37.17121000 3.56151000
-37.15073000 3.56151000
-37.13025000 3.56151000
-37.10977000 3.56151000
-37.08929000 2.66426600
-37.06881000 2.66426600
-37.04833000 2.66426600
-37.02785000 2.66426600
-37.00737000 2.66426600
-36.98689000 3.56151000
-36.96640000 2.66426600
-36.94593000 3.56151000
-36.92545000 3.56151000
-36.90497000 2.66426600
-36.88449000 2.66426600
-36.86401000 39.52147000
-36.84353000 38.62117000
-36.82305000 35.02609000
-36.80257000 33.22855000
-36.78209000 30.53072000
-36.76161000 28.73318000
-36.74113000 25.13810000
-36.72065000 24.23780000
-36.70017000 21.53996000
-36.67969000 20.64272000
-36.65921000 20.64272000
-36.63873000 17.94488000
-36.61825000 17.94488000
-36.59777000 16.14734000
-36.57729000 15.24705000
-36.55680000 13.44951000
-36.53633000 12.54921000
-36.51585000 11.65197000
-36.49537000 10.75167000
-36.47489000 10.75167000
-36.45441000 9.85137500
-36.43393000 9.85137500
-36.41344000 8.95413000
-36.39297000 7.15659000
-36.37249000 7.15659000
-36.35201000 7.15659000
-36.33153000 7.15659000
-36.31105000 6.25629500
-36.29057000 7.15659000
-36.27009000 6.25629500
-36.24961000 6.25629500
-36.22913000 5.35905000
-36.20865000 5.35905000
-36.18817000 4.46180600
-36.16769000 5.35905000
-36.14721000 5.35905000
-36.12673000 4.46180600
-36.10625000 5.35905000
-36.08577000 3.56151000
-36.06529000 3.56151000
-36.04481000 3.56151000
-36.02433000 3.56151000
-36.00385000 3.56151000
-35.98337000 3.56151000
-35.96289000 4.46180600
-35.94241000 3.56151000
-35.92193000 3.56151000
-35.90145000 3.56151000
-35.88097000 3.56151000
-35.86049000 2.66426600
-35.84001000 3.56151000
-35.81953000 3.56151000
-35.79905000 3.56151000
-35.77857000 3.56151000
-35.75809000 2.66426600
-35.73761000 3.56151000
-35.71712000 2.66426600
-35.69665000 2.66426600
-35.67617000 2.66426600
-35.65569000 2.66426600
-35.63521000 3.56151000
-35.61473000 2.66426600
-35.59425000 3.56151000
-35.57377000 3.56151000
-35.55329000 2.66426600
-35.53281000 2.66426600
-35.51233000 2.66426600
-35.49185000 3.56151000
-35.47137000 3.56151000
-35.45089000 3.56151000
-35.43041000 2.66426600
-35.40993000 3.56151000
-35.38945000 2.66426600
-35.36897000 2.66426600
-35.34849000 1.76397000
-35.32801000 2.66426600
-35.30753000 3.56151000
-35.28705000 3.56151000
-35.26657000 3.56151000
-35.24609000 2.66426600
-35.22561000 2.66426600
-35.20512000 1.76397000
-35.18465000 2.66426600
-35.16417000 1.76397000
-35.14369000 2.66426600
-35.12321000 3.56151000
-35.10273000 2.66426600
-35.08225000 3.56151000
-35.06177000 2.66426600
-35.04129000 2.66426600
-35.02081000 2.66426600
-35.00033000 2.66426600
-34.97985000 3.56151000
-34.95937000 2.66426600
-34.93889000 3.56151000
-34.91841000 2.66426600
-34.89793000 2.66426600
-34.87745000 2.66426600
-34.85697000 2.66426600
-34.83649000 2.66426600
-34.81601000 3.56151000
-34.79552000 3.56151000
-34.77505000 3.56151000
-34.75457000 3.56151000
-34.73409000 2.66426600
-34.71361000 2.66426600
-34.69313000 1.76397000
-34.67265000 2.66426600
-34.65216000 2.66426600
-34.63169000 2.66426600
-34.61121000 3.56151000
-34.59073000 2.66426600
-34.57025000 3.56151000
-34.54977000 2.66426600
-34.52929000 2.66426600
-34.50881000 2.66426600
-34.48833000 2.66426600
-34.46785000 3.56151000
-34.44737000 2.66426600
-34.42689000 50.30976000
-34.40641000 47.61193000
-34.38593000 44.91714000
-34.36545000 43.11655000
-34.34497000 37.72393000
-34.32449000 34.12885000
-34.30401000 32.32826000
-34.28353000 30.53072000
-34.26305000 27.83288000
-34.24257000 26.93563000
-34.22209000 24.23780000
-34.20161000 22.44026000
-34.18113000 19.74242000
-34.16065000 19.74242000
-34.14017000 17.94488000
-34.11969000 17.04459000
-34.09921000 16.14734000
-34.07873000 14.34675000
-34.05825000 14.34675000
-34.03777000 13.44951000
-34.01729000 11.65197000
-33.99681000 10.75167000
-33.97633000 10.75167000
-33.95584000 10.75167000
-33.93537000 9.85137500
-33.91489000 9.85137500
-33.89441000 8.95413000
-33.87393000 8.05383400
-33.85345000 7.15659000
-33.83297000 7.15659000
-33.81249000 7.15659000
-33.79201000 7.15659000
-33.77153000 7.15659000
-33.75105000 7.15659000
-33.73057000 7.15659000
-33.71009000 5.35905000
-33.68961000 6.25629500
-33.66913000 5.35905000
-33.64865000 5.35905000
-33.62817000 5.35905000
-33.60769000 5.35905000
-33.58721000 5.35905000
-33.56673000 5.35905000
-33.54625000 4.46180600
-33.52577000 4.46180600
-33.50529000 4.46180600
-33.48481000 3.56151000
-33.46433000 4.46180600
-33.44385000 4.46180600
-33.42337000 3.56151000
-33.40289000 4.46180600
-33.38241000 3.56151000
-33.36193000 3.56151000
-33.34145000 3.56151000
-33.32097000 3.56151000
-33.30049000 2.66426600
-33.28001000 3.56151000
-33.25953000 3.56151000
-33.23905000 3.56151000
-33.21857000 3.56151000
-33.19809000 3.56151000
-33.17761000 3.56151000
-33.15713000 2.66426600
-33.13665000 2.66426600
-33.11617000 3.56151000
-33.09569000 3.56151000
-33.07521000 3.56151000
-33.05473000 3.56151000
-33.03424000 3.56151000
